Wavelength (nm)	L01 abs e
220.00	3782.2
220.25	3797.8
220.50	3789.1
220.75	3767.5
221.00	3775.9
221.25	3733.7
221.50	3727.6
221.75	3767.8
222.00	3761.6
222.25	3783.9
222.50	3778.3
222.75	3822.5
223.00	3839.1
223.25	3860.5
223.50	3865.4
223.75	3901.6
224.00	3906.7
224.25	3891.9
224.50	3928.1
224.75	3926.7
225.00	3964.7
225.25	3979.6
225.50	4031.6
225.75	4035.5
226.00	4094.3
226.25	4109.9
226.50	4098.7
226.75	4093.7
227.00	4134.4
227.25	4171.2
227.50	4209.8
227.75	4235.9
228.00	4241.0
228.25	4301.4
228.50	4333.7
228.75	4364.7
229.00	4400.8
229.25	4433.8
229.50	4480.2
229.75	4486.6
230.00	4533.9
230.25	4589.7
230.50	4587.6
230.75	4671.0
231.00	4699.7
231.25	4725.6
231.50	4788.6
231.75	4837.5
232.00	4860.1
232.25	4947.6
232.50	4971.6
232.75	5010.6
233.00	5050.4
233.25	5081.7
233.50	5132.7
233.75	5212.5
234.00	5247.3
234.25	5321.8
234.50	5348.0
234.75	5425.2
235.00	5513.4
235.25	5554.4
235.50	5643.8
235.75	5692.5
236.00	5752.0
236.25	5790.8
236.50	5889.1
236.75	5943.5
237.00	6011.3
237.25	6070.6
237.50	6147.8
237.75	6194.6
238.00	6278.7
238.25	6323.4
238.50	6364.3
238.75	6416.8
239.00	6478.1
239.25	6558.8
239.50	6598.7
239.75	6700.3
240.00	6726.5
240.25	6786.2
240.50	6846.5
240.75	6913.2
241.00	6985.5
241.25	7011.9
241.50	7072.9
241.75	7133.2
242.00	7202.6
242.25	7244.2
242.50	7306.3
242.75	7295.8
243.00	7382.6
243.25	7466.3
243.50	7549.6
243.75	7557.7
244.00	7612.7
244.25	7650.7
244.50	7687.4
244.75	7735.7
245.00	7800.4
245.25	7826.0
245.50	7860.7
245.75	7920.7
246.00	7962.3
246.25	7978.0
246.50	8015.2
246.75	8056.5
247.00	8067.5
247.25	8124.5
247.50	8149.6
247.75	8166.5
248.00	8227.3
248.25	8240.9
248.50	8227.5
248.75	8225.9
249.00	8270.3
249.25	8308.9
249.50	8332.0
249.75	8311.3
250.00	8359.8
250.25	8360.1
250.50	8345.2
250.75	8333.5
251.00	8332.7
251.25	8351.3
251.50	8340.4
251.75	8373.7
252.00	8336.6
252.25	8368.8
252.50	8335.4
252.75	8309.4
253.00	8287.0
253.25	8275.7
253.50	8269.9
253.75	8277.5
254.00	8274.1
254.25	8227.8
254.50	8164.7
254.75	8188.9
255.00	8147.8
255.25	8117.1
255.50	8070.9
255.75	8088.4
256.00	8032.1
256.25	8024.1
256.50	7981.9
256.75	7966.8
257.00	7878.8
257.25	7893.3
257.50	7832.4
257.75	7794.4
258.00	7719.0
258.25	7700.0
258.50	7677.8
258.75	7621.7
259.00	7559.9
259.25	7496.0
259.50	7466.3
259.75	7466.6
260.00	7411.2
260.25	7365.7
260.50	7345.4
260.75	7298.8
261.00	7223.1
261.25	7192.3
261.50	7103.3
261.75	7131.0
262.00	7035.3
262.25	7001.1
262.50	6959.2
262.75	6944.4
263.00	6866.6
263.25	6850.1
263.50	6812.6
263.75	6778.4
264.00	6711.0
264.25	6693.0
264.50	6629.3
264.75	6590.7
265.00	6542.6
265.25	6466.2
265.50	6428.0
265.75	6393.6
266.00	6347.4
266.25	6292.2
266.50	6262.2
266.75	6226.2
267.00	6161.5
267.25	6099.1
267.50	6043.5
267.75	5984.2
268.00	5910.3
268.25	5849.4
268.50	5806.5
268.75	5739.7
269.00	5658.9
269.25	5623.3
269.50	5541.5
269.75	5506.0
270.00	5443.6
270.25	5384.7
270.50	5302.5
270.75	5225.0
271.00	5137.5
271.25	5068.4
271.50	4974.0
271.75	4858.9
272.00	4820.9
272.25	4752.8
272.50	4670.1
272.75	4603.5
273.00	4522.7
273.25	4475.7
273.50	4354.8
273.75	4285.8
274.00	4220.2
274.25	4136.8
274.50	4040.9
274.75	3934.8
275.00	3819.3
275.25	3749.1
275.50	3628.1
275.75	3566.6
276.00	3454.4
276.25	3381.5
276.50	3305.2
276.75	3248.2
277.00	3154.1
277.25	3104.9
277.50	3003.6
277.75	2937.3
278.00	2873.8
278.25	2783.5
278.50	2718.7
278.75	2676.5
279.00	2608.1
279.25	2542.6
279.50	2489.2
279.75	2438.1
280.00	2385.2
280.25	2292.4
280.50	2227.2
280.75	2188.1
281.00	2158.0
281.25	2075.0
281.50	2064.5
281.75	2042.2
282.00	1975.9
282.25	1955.1
282.50	1890.1
282.75	1847.0
283.00	1812.1
283.25	1770.4
283.50	1721.7
283.75	1724.0
284.00	1669.2
284.25	1629.9
284.50	1637.9
284.75	1581.4
285.00	1587.5
285.25	1558.0
285.50	1507.2
285.75	1488.5
286.00	1482.9
286.25	1492.2
286.50	1466.2
286.75	1449.4
287.00	1452.4
287.25	1409.6
287.50	1381.6
287.75	1379.2
288.00	1393.8
288.25	1380.3
288.50	1428.3
288.75	1386.4
289.00	1366.5
289.25	1357.1
289.50	1353.8
289.75	1306.4
290.00	1323.4
290.25	1312.7
290.50	1349.5
290.75	1369.7
291.00	1397.9
291.25	1347.5
291.50	1368.5
291.75	1375.3
292.00	1368.5
292.25	1371.9
292.50	1370.9
292.75	1363.5
293.00	1381.3
293.25	1404.1
293.50	1421.0
293.75	1434.4
294.00	1451.1
294.25	1455.2
294.50	1427.3
294.75	1450.2
295.00	1468.7
295.25	1485.6
295.50	1481.7
295.75	1511.8
296.00	1518.5
296.25	1525.6
296.50	1517.5
296.75	1593.7
297.00	1566.4
297.25	1590.8
297.50	1594.1
297.75	1629.0
298.00	1645.0
298.25	1615.2
298.50	1638.5
298.75	1668.0
299.00	1677.0
299.25	1695.8
299.50	1737.4
299.75	1731.3
300.00	1789.8
300.25	1787.6
300.50	1795.8
300.75	1817.8
301.00	1775.6
301.25	1799.1
301.50	1824.2
301.75	1816.4
302.00	1858.8
302.25	1890.5
302.50	1872.6
302.75	1899.3
303.00	1922.5
303.25	1885.1
303.50	1878.7
303.75	1924.3
304.00	1904.6
304.25	1899.5
304.50	1926.0
304.75	1910.7
305.00	1956.5
305.25	1924.3
305.50	1933.3
305.75	1954.1
306.00	1969.1
306.25	2010.5
306.50	1943.5
306.75	2021.9
307.00	1981.0
307.25	2014.8
307.50	1991.8
307.75	2013.6
308.00	2021.6
308.25	2020.2
308.50	2055.7
308.75	2078.6
309.00	2087.9
309.25	2084.3
309.50	2122.4
309.75	2016.0
310.00	2147.7
310.25	2099.4
310.50	2150.1
310.75	2176.7
311.00	2159.7
311.25	2236.7
311.50	2232.5
311.75	2297.0
312.00	2193.2
312.25	2260.5
312.50	2281.9
312.75	2301.7
313.00	2388.8
313.25	2365.4
313.50	2437.8
313.75	2296.9
314.00	2268.5
314.25	2291.2
314.50	2392.9
314.75	2350.9
315.00	2375.9
315.25	2290.8
315.50	2495.7
315.75	2450.0
316.00	2397.4
316.25	2336.2
316.50	2346.6
316.75	2360.8
317.00	2401.5
317.25	2318.7
317.50	2189.3
317.75	2287.9
318.00	2215.8
318.25	2280.1
318.50	2363.2
318.75	2092.8
319.00	2135.9
319.25	2355.2
319.50	2138.0
319.75	2120.8
320.00	2115.8
320.25	2118.8
320.50	2088.0
320.75	2019.0
321.00	2089.5
321.25	1991.8
321.50	2029.2
321.75	2062.0
322.00	2065.4
322.25	1996.4
322.50	1993.7
322.75	2054.9
323.00	2075.1
323.25	1975.9
323.50	1987.0
323.75	2041.0
324.00	2043.7
324.25	2037.7
324.50	1936.4
324.75	2046.9
325.00	1965.0
325.25	2022.6
325.50	2029.4
325.75	1942.7
326.00	2044.5
326.25	1995.5
326.50	1987.5
326.75	2040.6
327.00	2113.0
327.25	2169.3
327.50	2126.5
327.75	2145.6
328.00	2148.5
328.25	2180.6
328.50	2242.6
328.75	2245.9
329.00	2207.9
329.25	2288.1
329.50	2371.1
329.75	2334.3
330.00	2338.2
330.25	2384.9
330.50	2390.1
330.75	2428.1
331.00	2443.4
331.25	2569.7
331.50	2588.4
331.75	2588.8
332.00	2619.3
332.25	2708.7
332.50	2665.4
332.75	2672.7
333.00	2731.4
333.25	2715.5
333.50	2756.8
333.75	2889.2
334.00	2938.8
334.25	2934.0
334.50	2946.3
334.75	2955.7
335.00	3018.2
335.25	3017.9
335.50	3054.4
335.75	3175.3
336.00	3108.0
336.25	3203.5
336.50	3260.2
336.75	3306.9
337.00	3352.8
337.25	3366.6
337.50	3360.9
337.75	3480.9
338.00	3536.1
338.25	3571.5
338.50	3628.4
338.75	3734.5
339.00	3700.7
339.25	3741.1
339.50	3881.7
339.75	3916.3
340.00	3935.1
340.25	3988.7
340.50	4119.6
340.75	4063.4
341.00	4097.0
341.25	4267.1
341.50	4254.4
341.75	4360.7
342.00	4464.8
342.25	4494.3
342.50	4549.6
342.75	4570.0
343.00	4666.9
343.25	4695.5
343.50	4824.2
343.75	4897.7
344.00	4971.7
344.25	5047.4
344.50	5052.4
344.75	5078.6
345.00	5143.3
345.25	5239.8
345.50	5272.5
345.75	5363.1
346.00	5461.6
346.25	5563.2
346.50	5603.1
346.75	5664.3
347.00	5647.3
347.25	5691.3
347.50	5808.4
347.75	5944.9
348.00	6068.9
348.25	6116.6
348.50	6131.5
348.75	6202.2
349.00	6235.7
349.25	6271.5
349.50	6454.2
349.75	6393.2
350.00	6577.3
350.25	6609.1
350.50	6747.5
350.75	6712.3
351.00	6789.5
351.25	6869.1
351.50	6901.9
351.75	6989.7
352.00	7008.7
352.25	7241.8
352.50	7223.0
352.75	7248.1
353.00	7294.2
353.25	7407.8
353.50	7432.9
353.75	7593.7
354.00	7613.5
354.25	7631.7
354.50	7715.4
354.75	7828.8
355.00	7864.6
355.25	8030.3
355.50	8032.6
355.75	8114.3
356.00	8241.2
356.25	8265.4
356.50	8318.7
356.75	8320.5
357.00	8455.6
357.25	8495.1
357.50	8540.0
357.75	8554.5
358.00	8617.5
358.25	8790.0
358.50	8814.8
358.75	8827.7
359.00	8923.9
359.25	9013.1
359.50	9043.3
359.75	9111.4
360.00	9181.3
360.25	9214.0
360.50	9252.2
360.75	9269.1
361.00	9350.2
361.25	9468.2
361.50	9488.3
361.75	9531.5
362.00	9584.6
362.25	9606.6
362.50	9648.5
362.75	9734.9
363.00	9794.4
363.25	9886.7
363.50	9836.8
363.75	9864.6
364.00	9946.4
364.25	10010
364.50	9993.0
364.75	10079
365.00	10187
365.25	10131
365.50	10225
365.75	10283
366.00	10312
366.25	10311
366.50	10348
366.75	10432
367.00	10397
367.25	10391
367.50	10459
367.75	10423
368.00	10517
368.25	10595
368.50	10601
368.75	10583
369.00	10573
369.25	10568
369.50	10550
369.75	10639
370.00	10592
370.25	10591
370.50	10571
370.75	10514
371.00	10531
371.25	10606
371.50	10515
371.75	10570
372.00	10488
372.25	10496
372.50	10416
372.75	10457
373.00	10376
373.25	10395
373.50	10324
373.75	10300
374.00	10284
374.25	10272
374.50	10273
374.75	10201
375.00	10178
375.25	10107
375.50	10102
375.75	10044
376.00	9955.9
376.25	9908.9
376.50	9811.3
376.75	9747.1
377.00	9677.9
377.25	9613.7
377.50	9628.0
377.75	9520.9
378.00	9488.3
378.25	9394.0
378.50	9393.7
378.75	9239.0
379.00	9242.3
379.25	9118.6
379.50	9103.9
379.75	9073.4
380.00	9025.9
380.25	8994.8
380.50	8995.0
380.75	8948.1
381.00	8841.9
381.25	8873.5
381.50	8855.4
381.75	8791.3
382.00	8713.2
382.25	8720.7
382.50	8764.9
382.75	8653.8
383.00	8650.5
383.25	8568.5
383.50	8627.9
383.75	8604.9
384.00	8552.2
384.25	8595.0
384.50	8628.7
384.75	8622.1
385.00	8563.0
385.25	8610.7
385.50	8634.5
385.75	8677.6
386.00	8652.6
386.25	8690.8
386.50	8704.0
386.75	8765.7
387.00	8787.3
387.25	8798.5
387.50	8810.2
387.75	8861.8
388.00	8880.4
388.25	8907.9
388.50	8963.9
388.75	9095.8
389.00	9083.6
389.25	9141.0
389.50	9212.1
389.75	9186.8
390.00	9274.0
390.25	9348.2
390.50	9416.6
390.75	9463.7
391.00	9558.3
391.25	9655.4
391.50	9688.9
391.75	9802.0
392.00	9793.7
392.25	9926.4
392.50	10000
392.75	10038
393.00	10107
393.25	10241
393.50	10328
393.75	10404
394.00	10518
394.25	10537
394.50	10648
394.75	10759
395.00	10831
395.25	10950
395.50	11043
395.75	11217
396.00	11352
396.25	11420
396.50	11552
396.75	11613
397.00	11743
397.25	11842
397.50	11901
397.75	12052
398.00	12169
398.25	12220
398.50	12383
398.75	12444
399.00	12564
399.25	12609
399.50	12739
399.75	12853
400.00	13001
400.25	13093
400.50	13195
400.75	13248
401.00	13391
401.25	13520
401.50	13674
401.75	13746
402.00	13833
402.25	13956
402.50	14059
402.75	14083
403.00	14373
403.25	14412
403.50	14582
403.75	14642
404.00	14837
404.25	14923
404.50	15056
404.75	15150
405.00	15312
405.25	15294
405.50	15576
405.75	15685
406.00	15771
406.25	15914
406.50	16057
406.75	16084
407.00	16278
407.25	16424
407.50	16427
407.75	16551
408.00	16760
408.25	16844
408.50	16985
408.75	17138
409.00	17332
409.25	17390
409.50	17487
409.75	17674
410.00	17831
410.25	17900
410.50	18029
410.75	18101
411.00	18259
411.25	18424
411.50	18492
411.75	18708
412.00	18759
412.25	18925
412.50	19043
412.75	19113
413.00	19248
413.25	19430
413.50	19510
413.75	19657
414.00	19686
414.25	19910
414.50	19874
414.75	20016
415.00	20190
415.25	20241
415.50	20502
415.75	20522
416.00	20695
416.25	20647
416.50	20857
416.75	21039
417.00	21052
417.25	21311
417.50	21412
417.75	21404
418.00	21689
418.25	21730
418.50	21780
418.75	21994
419.00	22053
419.25	22196
419.50	22203
419.75	22411
420.00	22493
420.25	22559
420.50	22588
420.75	22836
421.00	22905
421.25	22894
421.50	23082
421.75	23175
422.00	23368
422.25	23299
422.50	23386
422.75	23422
423.00	23613
423.25	23653
423.50	23775
423.75	23875
424.00	23937
424.25	24040
424.50	23981
424.75	24215
425.00	24230
425.25	24357
425.50	24388
425.75	24435
426.00	24625
426.25	24577
426.50	24554
426.75	24681
427.00	24635
427.25	24740
427.50	24733
427.75	24812
428.00	24804
428.25	24859
428.50	24924
428.75	25014
429.00	25030
429.25	25043
429.50	25098
429.75	25108
430.00	25104
430.25	25129
430.50	25203
430.75	25072
431.00	25213
431.25	25300
431.50	25145
431.75	25219
432.00	25185
432.25	25148
432.50	25181
432.75	25116
433.00	25119
433.25	25166
433.50	25179
433.75	25047
434.00	25064
434.25	25105
434.50	25120
434.75	25043
435.00	25018
435.25	24926
435.50	24771
435.75	24831
436.00	24779
436.25	24868
436.50	24712
436.75	24505
437.00	24644
437.25	24564
437.50	24370
437.75	24494
438.00	24378
438.25	24182
438.50	24105
438.75	24053
439.00	24020
439.25	23952
439.50	23994
439.75	23811
440.00	23815
440.25	23601
440.50	23613
440.75	23545
441.00	23339
441.25	23322
441.50	23115
441.75	23161
442.00	23006
442.25	22919
442.50	22864
442.75	22703
443.00	22658
443.25	22417
443.50	22267
443.75	22297
444.00	22164
444.25	22008
444.50	21871
444.75	21699
445.00	21563
445.25	21495
445.50	21442
445.75	21255
446.00	21034
446.25	20925
446.50	20856
446.75	20657
447.00	20548
447.25	20398
447.50	20209
447.75	20110
448.00	19908
448.25	19794
448.50	19648
448.75	19451
449.00	19334
449.25	19131
449.50	18927
449.75	18841
450.00	18697
450.25	18482
450.50	18350
450.75	18183
451.00	17983
451.25	17798
451.50	17651
451.75	17502
452.00	17335
452.25	17171
452.50	16939
452.75	16857
453.00	16632
453.25	16504
453.50	16282
453.75	16099
454.00	15950
454.25	15776
454.50	15703
454.75	15607
455.00	15407
455.25	15169
455.50	15078
455.75	14895
456.00	14690
456.25	14501
456.50	14296
456.75	14105
457.00	13974
457.25	13784
457.50	13621
457.75	13412
458.00	13244
458.25	13067
458.50	12909
458.75	12703
459.00	12485
459.25	12373
459.50	12161
459.75	12005
460.00	11799
460.25	11624
460.50	11478
460.75	11280
461.00	11163
461.25	10951
461.50	10790
461.75	10614
462.00	10465
462.25	10297
462.50	10117
462.75	9984.9
463.00	9799.8
463.25	9614.3
463.50	9471.8
463.75	9367.1
464.00	9161.4
464.25	9052.3
464.50	8880.5
464.75	8707.2
465.00	8585.8
465.25	8421.8
465.50	8303.1
465.75	8141.7
466.00	7996.5
466.25	7883.9
466.50	7740.1
466.75	7633.5
467.00	7466.0
467.25	7337.0
467.50	7182.7
467.75	7071.1
468.00	6940.0
468.25	6814.8
468.50	6685.5
468.75	6535.4
469.00	6473.2
469.25	6317.1
469.50	6190.0
469.75	6063.2
470.00	5966.9
470.25	5871.6
470.50	5704.6
470.75	5613.8
471.00	5492.9
471.25	5433.2
471.50	5284.1
471.75	5180.1
472.00	5105.3
472.25	4985.2
472.50	4861.9
472.75	4770.9
473.00	4674.6
473.25	4590.6
473.50	4462.8
473.75	4410.2
474.00	4329.8
474.25	4231.1
474.50	4139.7
474.75	4070.7
475.00	3928.7
475.25	3809.7
475.50	3730.1
475.75	3593.2
476.00	3526.3
476.25	3462.0
476.50	3412.5
476.75	3356.1
477.00	3233.2
477.25	3154.8
477.50	3090.8
477.75	3013.9
478.00	2947.2
478.25	2880.6
478.50	2829.1
478.75	2777.0
479.00	2720.2
479.25	2657.6
479.50	2585.4
479.75	2554.8
480.00	2518.5
480.25	2461.5
480.50	2351.0
480.75	2318.3
481.00	2248.7
481.25	2220.3
481.50	2126.2
481.75	2095.0
482.00	2028.6
482.25	2012.4
482.50	1997.5
482.75	1935.5
483.00	1891.3
483.25	1809.0
483.50	1811.7
483.75	1707.5
484.00	1697.9
484.25	1683.0
484.50	1607.0
484.75	1589.2
485.00	1495.9
485.25	1497.0
485.50	1477.1
485.75	1435.3
486.00	1416.0
486.25	1375.2
486.50	1314.3
486.75	1293.4
487.00	1265.7
487.25	1221.4
487.50	1161.1
487.75	1178.9
488.00	1132.1
488.25	1133.3
488.50	1091.8
488.75	1059.2
489.00	1024.0
489.25	998.00
489.50	987.52
489.75	924.08
490.00	927.67
490.25	885.63
490.50	893.86
490.75	814.26
491.00	854.80
491.25	808.42
491.50	803.93
491.75	788.22
492.00	738.25
492.25	723.28
492.50	694.41
492.75	666.28
493.00	650.57
493.25	663.14
493.50	673.16
493.75	626.48
494.00	630.22
494.25	613.46
494.50	607.92
494.75	615.70
495.00	578.30
495.25	575.75
495.50	542.69
495.75	553.16
496.00	529.07
496.25	530.87
496.50	497.50
496.75	485.23
497.00	502.89
497.25	452.91
497.50	423.14
497.75	433.46
498.00	431.82
498.25	355.36
498.50	397.40
498.75	390.82
499.00	389.32
499.25	337.55
499.50	341.29
499.75	355.21
500.00	321.84
500.25	334.26
500.50	314.66
500.75	340.84
501.00	335.46
501.25	296.41
501.50	284.14
501.75	282.79
502.00	259.60
502.25	316.46
502.50	266.03
502.75	255.41
503.00	257.20
503.25	278.15
503.50	223.84
503.75	257.95
504.00	230.12
504.25	207.98
504.50	261.09
504.75	210.97
505.00	228.93
505.25	185.09
505.50	224.74
505.75	196.76
506.00	216.66
506.25	210.37
506.50	244.34
506.75	209.92
507.00	146.78
507.25	184.19
507.50	176.11
507.75	180.30
508.00	164.44
508.25	141.54
508.50	139.60
508.75	176.26
509.00	189.87
509.25	139.60
509.50	183.14
509.75	149.62
510.00	162.19
510.25	159.35
510.50	118.95
510.75	168.03
511.00	156.96
511.25	93.515
511.50	131.22
511.75	122.99
512.00	162.94
512.25	122.84
512.50	116.56
512.75	130.32
513.00	145.29
513.25	145.73
513.50	91.271
513.75	142.59
514.00	133.61
514.25	150.67
514.50	131.52
514.75	155.46
515.00	139.30
515.25	122.69
515.50	126.13
515.75	48.329
516.00	108.48
516.25	131.07
516.50	94.563
516.75	108.63
517.00	129.13
517.25	140.80
517.50	129.57
517.75	114.76
518.00	107.73
518.25	82.742
518.50	144.84
518.75	139.75
519.00	115.81
519.25	107.88
519.50	142.44
519.75	103.69
520.00	101.00
520.25	119.25
520.50	58.653
520.75	115.66
521.00	69.276
521.25	133.02
521.50	61.047
521.75	103.09
522.00	134.51
522.25	66.583
522.50	106.23
522.75	90.224
523.00	130.02
523.25	99.051
523.50	76.458
523.75	90.972
524.00	83.341
524.25	77.655
524.50	59.700
524.75	62.393
525.00	79.301
525.25	76.757
525.50	105.93
525.75	73.466
526.00	119.40
526.25	65.984
526.50	109.38
526.75	45.785
527.00	73.914
527.25	62.094
527.50	41.596
527.75	70.323
528.00	51.172
528.25	76.907
528.50	97.256
528.75	129.72
529.00	121.05
529.25	94.712
529.50	108.18
529.75	61.496
530.00	102.79
530.25	53.566
530.50	39.800
530.75	124.19
531.00	93.066
531.25	105.78
531.50	41.296
531.75	78.852
532.00	46.982
532.25	49.077
532.50	65.835
532.75	50.872
533.00	116.26
533.25	72.717
533.50	98.603
533.75	58.354
534.00	79.600
534.25	101.30
534.50	71.371
534.75	102.79
535.00	73.166
535.25	53.117
535.50	78.702
535.75	51.471
536.00	62.094
536.25	22.144
536.50	102.34
536.75	42.643
537.00	70.772
537.25	64.039
537.50	83.341
537.75	40.249
538.00	84.987
538.25	61.196
538.50	98.453
538.75	89.176
539.00	48.778
539.25	85.136
539.50	80.199
539.75	103.39
540.00	78.403
540.25	59.102
540.50	61.047
540.75	54.763
541.00	94.413
541.25	47.132
541.50	55.660
541.75	103.24
542.00	70.473
542.25	55.211
542.50	18.105
542.75	70.922
543.00	45.935
543.25	51.620
543.50	38.902
543.75	75.111
544.00	79.750
544.25	87.830
544.50	93.964
544.75	35.910
545.00	59.102
545.25	55.361
545.50	55.810
545.75	89.475
546.00	73.615
546.25	66.583
546.50	47.281
546.75	76.159
547.00	64.039
547.25	94.862
547.50	47.880
547.75	77.356
548.00	53.865
548.25	57.456
548.50	65.984
548.75	28.129
549.00	50.573
549.25	69.875
549.50	87.231
549.75	69.426
550.00	35.910
550.25	75.261
550.50	29.326
550.75	33.965
551.00	72.568
551.25	77.206
551.50	76.458
551.75	90.523
552.00	53.865
552.25	48.179
552.50	61.795
552.75	52.967
553.00	46.982
553.25	63.890
553.50	18.553
553.75	78.403
554.00	86.782
554.25	110.72
554.50	76.009
554.75	56.259
555.00	74.748
555.25	43.391
555.50	59.850
555.75	92.767
556.00	55.211
556.25	62.393
556.50	47.581
556.75	59.102
557.00	42.942
557.25	79.451
557.50	66.882
557.75	88.877
558.00	49.975
558.25	67.331
558.50	27.531
558.75	40.698
559.00	67.630
559.25	56.109
559.50	88.727
559.75	102.19
560.00	76.757
560.25	96.807
560.50	54.463
560.75	89.326
561.00	46.084
561.25	25.436
561.50	71.969
561.75	29.925
562.00	83.640
562.25	50.274
562.50	89.924
562.75	36.658
563.00	86.932
563.25	80.498
563.50	60.897
563.75	62.992
564.00	76.757
564.25	61.645
564.50	27.681
564.75	50.124
565.00	69.725
565.25	49.077
565.50	103.54
565.75	51.321
566.00	73.466
566.25	69.426
566.50	77.954
566.75	81.396
567.00	80.348
567.25	71.371
567.50	48.329
567.75	97.854
568.00	67.032
568.25	104.89
568.50	65.685
568.75	57.157
569.00	69.426
569.25	68.229
569.50	92.468
569.75	129.43
570.00	76.308
570.25	63.740
570.50	62.543
570.75	57.456
571.00	95.311
571.25	28.728
571.50	66.882
571.75	53.566
572.00	66.733
572.25	76.308
572.50	63.740
572.75	126.43
573.00	84.089
573.25	112.52
573.50	48.778
573.75	59.102
574.00	95.311
574.25	61.645
574.50	101.15
574.75	64.339
575.00	105.04
575.25	80.797
575.50	86.333
575.75	79.301
576.00	58.802
576.25	116.71
576.50	41.745
576.75	124.94
577.00	100.70
577.25	93.515
577.50	86.184
577.75	88.278
578.00	105.19
578.25	87.381
578.50	90.523
578.75	108.18
579.00	51.620
579.25	87.381
579.50	70.623
579.75	102.94
580.00	56.558
580.25	94.862
580.50	116.56
580.75	113.12
581.00	84.837
581.25	93.066
581.50	72.717
581.75	63.740
582.00	72.568
582.25	53.416
582.50	101.89
582.75	85.884
583.00	58.204
583.25	107.28
583.50	92.767
583.75	90.822
584.00	80.049
584.25	101.15
584.50	84.089
584.75	77.655
585.00	80.049
585.25	57.905
585.50	80.199
585.75	60.748
586.00	101.30
586.25	71.670
586.50	118.65
586.75	93.815
587.00	71.670
587.25	120.75
587.50	103.69
587.75	99.201
588.00	87.081
588.25	13.017
588.50	67.032
588.75	89.176
589.00	106.08
589.25	79.750
589.50	144.84
589.75	98.004
590.00	68.229
590.25	80.199
590.50	39.501
590.75	108.33
591.00	83.790
591.25	123.14
591.50	32.319
591.75	86.333
592.00	85.884
592.25	59.251
592.50	75.710
592.75	89.775
593.00	113.27
593.25	82.593
593.50	72.119
593.75	96.358
594.00	60.748
594.25	71.670
594.50	37.256
594.75	93.665
595.00	64.787
595.25	103.84
595.50	86.633
595.75	48.329
596.00	28.578
596.25	68.977
596.50	109.38
596.75	55.211
597.00	92.318
597.25	85.436
597.50	62.393
597.75	29.626
598.00	16.159
598.25	98.902
598.50	59.102
598.75	111.77
599.00	67.331
599.25	41.895
599.50	71.520
599.75	80.049
600.00	88.129
