Wavelength (nm)	L02 abs e
220.00	18269
220.25	18384
220.50	17606
220.75	17020
221.00	17617
221.25	16930
221.50	16906
221.75	15769
222.00	15506
222.25	14965
222.50	15225
222.75	15570
223.00	14928
223.25	15155
223.50	14265
223.75	14187
224.00	14187
224.25	13431
224.50	13859
224.75	13736
225.00	12620
225.25	12657
225.50	13143
225.75	12621
226.00	12433
226.25	12881
226.50	12666
226.75	12331
227.00	12269
227.25	12170
227.50	11815
227.75	11702
228.00	12055
228.25	12343
228.50	11898
228.75	12005
229.00	12162
229.25	11519
229.50	11101
229.75	11569
230.00	11686
230.25	11612
230.50	11880
230.75	11635
231.00	11344
231.25	11255
231.50	11208
231.75	11926
232.00	11656
232.25	11555
232.50	10928
232.75	11489
233.00	10638
233.25	11505
233.50	11356
233.75	11729
234.00	11123
234.25	11207
234.50	11444
234.75	11246
235.00	11096
235.25	11225
235.50	11167
235.75	10772
236.00	10490
236.25	10764
236.50	10674
236.75	11551
237.00	10838
237.25	11388
237.50	11467
237.75	11092
238.00	11677
238.25	10861
238.50	10689
238.75	11145
239.00	10961
239.25	11155
239.50	11298
239.75	10305
240.00	10752
240.25	11219
240.50	10875
240.75	10993
241.00	11054
241.25	11052
241.50	11476
241.75	10588
242.00	10752
242.25	10765
242.50	11074
242.75	11308
243.00	10934
243.25	11008
243.50	10783
243.75	11006
244.00	10999
244.25	11148
244.50	10597
244.75	11135
245.00	10491
245.25	11139
245.50	10892
245.75	10932
246.00	10482
246.25	10908
246.50	11206
246.75	10957
247.00	10877
247.25	10522
247.50	10956
247.75	10931
248.00	10931
248.25	11186
248.50	10340
248.75	10232
249.00	10872
249.25	10824
249.50	10545
249.75	10864
250.00	10941
250.25	10283
250.50	10838
250.75	10896
251.00	10679
251.25	10693
251.50	10266
251.75	10735
252.00	10414
252.25	10204
252.50	10365
252.75	9999.5
253.00	10487
253.25	10020
253.50	10400
253.75	10294
254.00	10069
254.25	10288
254.50	9953.8
254.75	10285
255.00	10170
255.25	10737
255.50	10244
255.75	10401
256.00	10346
256.25	10241
256.50	9540.9
256.75	9727.1
257.00	10184
257.25	9910.1
257.50	9806.1
257.75	9931.9
258.00	9220.7
258.25	9135.4
258.50	9430.7
258.75	9454.6
259.00	9060.5
259.25	9191.5
259.50	8762.1
259.75	9501.4
260.00	9343.4
260.25	9049.1
260.50	9395.4
260.75	9333.0
261.00	8663.3
261.25	8371.1
261.50	8737.1
261.75	9079.2
262.00	8817.2
262.25	8494.8
262.50	8204.7
262.75	8748.5
263.00	8182.9
263.25	8168.3
263.50	8522.9
263.75	8262.9
264.00	8743.3
264.25	8588.4
264.50	8630.0
264.75	8143.3
265.00	8015.4
265.25	8453.2
265.50	8278.5
265.75	8129.8
266.00	8327.4
266.25	7509.0
266.50	7714.9
266.75	7893.8
267.00	8267.1
267.25	8178.7
267.50	7954.1
267.75	7787.7
268.00	8019.6
268.25	8212.0
268.50	8228.6
268.75	7893.8
269.00	8526.0
269.25	8156.9
269.50	8160.0
269.75	8027.9
270.00	8649.8
270.25	8109.0
270.50	8157.9
270.75	8061.2
271.00	8347.2
271.25	8184.9
271.50	7917.7
271.75	8608.2
272.00	8477.1
272.25	8415.8
272.50	8371.1
272.75	8342.0
273.00	7987.4
273.25	7856.3
273.50	8659.1
273.75	9001.2
274.00	8812.0
274.25	8553.1
274.50	8862.9
274.75	8648.7
275.00	8527.1
275.25	8449.1
275.50	9042.8
275.75	8554.1
276.00	8458.4
276.25	9197.8
276.50	8832.8
276.75	9214.4
277.00	9566.9
277.25	9794.7
277.50	9459.8
277.75	9409.9
278.00	9185.3
278.25	9844.6
278.50	8688.2
278.75	9290.3
279.00	9315.3
279.25	10006
279.50	9343.4
279.75	9311.1
280.00	9169.7
280.25	9610.6
280.50	9644.9
280.75	10008
281.00	9835.2
281.25	9625.2
281.50	9886.2
281.75	9889.3
282.00	10188
282.25	9904.9
282.50	10094
282.75	9442.2
283.00	10225
283.25	10295
283.50	10130
283.75	10005
284.00	10996
284.25	9986.0
284.50	10340
284.75	10824
285.00	10357
285.25	10313
285.50	10631
285.75	10093
286.00	10433
286.25	10334
286.50	10644
286.75	10742
287.00	10385
287.25	11015
287.50	10567
287.75	10479
288.00	10817
288.25	11069
288.50	11291
288.75	10813
289.00	10710
289.25	10865
289.50	11179
289.75	10619
290.00	11533
290.25	10783
290.50	11236
290.75	11539
291.00	11109
291.25	11170
291.50	10419
291.75	11117
292.00	11710
292.25	11971
292.50	11581
292.75	12036
293.00	11627
293.25	11734
293.50	11731
293.75	11854
294.00	12190
294.25	12037
294.50	11623
294.75	12030
295.00	12191
295.25	11847
295.50	11415
295.75	12069
296.00	12209
296.25	12468
296.50	11938
296.75	12266
297.00	12956
297.25	12134
297.50	12797
297.75	12695
298.00	11997
298.25	12745
298.50	12545
298.75	12603
299.00	12594
299.25	12800
299.50	12656
299.75	13249
300.00	12909
300.25	12811
300.50	12952
300.75	12983
301.00	13102
301.25	13610
301.50	13043
301.75	13804
302.00	13304
302.25	13267
302.50	13493
302.75	13653
303.00	13928
303.25	13471
303.50	13134
303.75	13543
304.00	14341
304.25	14009
304.50	14007
304.75	13741
305.00	14172
305.25	14013
305.50	14507
305.75	14381
306.00	13804
306.25	14035
306.50	14240
306.75	14305
307.00	14851
307.25	14365
307.50	14481
307.75	14714
308.00	14812
308.25	14493
308.50	14749
308.75	15272
309.00	15386
309.25	15481
309.50	14700
309.75	15624
310.00	14968
310.25	15305
310.50	16635
310.75	15366
311.00	16377
311.25	15039
311.50	15760
311.75	16401
312.00	16405
312.25	17246
312.50	16192
312.75	16855
313.00	15829
313.25	16891
313.50	16253
313.75	16524
314.00	16080
314.25	16845
314.50	16163
314.75	16787
315.00	16864
315.25	16311
315.50	17081
315.75	16562
316.00	16554
316.25	16880
316.50	16551
316.75	16842
317.00	17549
317.25	17735
317.50	16730
317.75	16923
318.00	17232
318.25	16755
318.50	16736
318.75	15310
319.00	16012
319.25	15889
319.50	14843
319.75	15461
320.00	15763
320.25	15766
320.50	14376
320.75	14532
321.00	14636
321.25	15040
321.50	14522
321.75	13605
322.00	14208
322.25	13636
322.50	13661
322.75	12613
323.00	12929
323.25	12466
323.50	11377
323.75	12172
324.00	12610
324.25	11577
324.50	10768
324.75	10661
325.00	10252
325.25	10248
325.50	10097
325.75	9837.3
326.00	9913.2
326.25	9618.9
326.50	8823.4
326.75	8786.0
327.00	8823.4
327.25	8570.7
327.50	8071.6
327.75	8220.3
328.00	7269.8
328.25	7008.8
328.50	7268.8
328.75	6723.9
329.00	6859.1
329.25	7438.3
329.50	7070.2
329.75	7170.0
330.00	6783.2
330.25	5954.4
330.50	5884.7
330.75	5938.8
331.00	6356.8
331.25	5775.5
331.50	6283.0
331.75	5130.8
332.00	5090.2
332.25	4973.8
332.50	5173.4
332.75	5367.9
333.00	5725.6
333.25	5139.1
333.50	4821.9
333.75	4755.4
334.00	4390.4
334.25	4576.5
334.50	4309.3
334.75	5709.0
335.00	4542.2
335.25	4687.8
335.50	4021.2
335.75	3938.0
336.00	3567.8
336.25	4366.5
336.50	4110.7
336.75	3945.3
337.00	4103.4
337.25	3866.3
337.50	4022.3
337.75	4011.9
338.00	3266.3
338.25	4247.9
338.50	3725.9
338.75	4073.2
339.00	3963.0
339.25	3778.9
339.50	3262.1
339.75	3637.5
340.00	3498.2
340.25	3476.3
340.50	3307.9
340.75	3800.8
341.00	3389.0
341.25	2979.3
341.50	3165.4
341.75	3393.1
342.00	3189.3
342.25	3728.0
342.50	3303.7
342.75	3455.5
343.00	3037.5
343.25	3493.0
343.50	3402.5
343.75	2921.0
344.00	3509.6
344.25	3346.3
344.50	3140.5
344.75	3339.1
345.00	3378.6
345.25	2672.5
345.50	2955.4
345.75	3108.2
346.00	2473.9
346.25	2962.6
346.50	2998.0
346.75	3108.2
347.00	3422.3
347.25	2978.2
347.50	3130.1
347.75	2955.4
348.00	2518.6
348.25	3410.8
348.50	3014.6
348.75	3330.8
349.00	3185.2
349.25	2923.1
349.50	3106.1
349.75	3353.6
350.00	3368.2
350.25	3025.0
350.50	2701.6
350.75	3083.3
351.00	2878.4
351.25	2914.8
351.50	3249.6
351.75	3496.1
352.00	3401.5
352.25	2929.4
352.50	2981.3
352.75	2740.1
353.00	2980.3
353.25	3171.6
353.50	3410.8
353.75	2784.8
354.00	2830.6
354.25	3110.3
354.50	3207.0
354.75	3190.4
355.00	3412.9
355.25	3293.3
355.50	2694.3
355.75	3020.9
356.00	3365.1
356.25	2833.7
356.50	3372.3
356.75	3630.2
357.00	3245.5
357.25	3244.4
357.50	3303.7
357.75	3246.5
358.00	3538.7
358.25	3391.1
358.50	3162.3
358.75	3389.0
359.00	3376.5
359.25	3230.9
359.50	3494.0
359.75	3679.1
360.00	3328.7
360.25	2998.0
360.50	3418.1
360.75	3316.2
361.00	3113.4
361.25	2808.7
361.50	2986.5
361.75	3384.8
362.00	3425.4
362.25	3807.0
362.50	3425.4
362.75	3619.8
363.00	3773.7
363.25	3842.4
363.50	3566.8
363.75	3597.0
364.00	4054.5
364.25	3786.2
364.50	3693.7
364.75	3971.3
365.00	3922.4
365.25	3729.0
365.50	4145.0
365.75	3904.8
366.00	4174.1
366.25	4046.2
366.50	4306.2
366.75	4181.4
367.00	4116.9
367.25	4426.8
367.50	3849.7
367.75	4142.9
368.00	3870.5
368.25	4178.3
368.50	4198.0
368.75	4210.5
369.00	4110.7
369.25	4245.8
369.50	4359.2
369.75	4584.9
370.00	4223.0
370.25	4154.3
370.50	4389.4
370.75	4093.0
371.00	4271.8
371.25	4820.9
371.50	4657.6
371.75	4418.5
372.00	4267.7
372.25	4767.9
372.50	4574.5
372.75	5071.5
373.00	4594.2
373.25	4502.7
373.50	5313.8
373.75	4944.7
374.00	4521.4
374.25	5015.4
374.50	5131.8
374.75	5009.1
375.00	5173.4
375.25	4811.5
375.50	4724.2
375.75	4884.3
376.00	5362.7
376.25	5085.0
376.50	5256.6
376.75	5002.9
377.00	5107.9
377.25	5490.6
377.50	5071.5
377.75	4905.1
378.00	5617.5
378.25	5276.4
378.50	5273.3
378.75	5514.5
379.00	5527.0
379.25	5432.4
379.50	5973.1
379.75	5628.9
380.00	5718.3
380.25	5911.7
380.50	5806.7
380.75	5773.4
381.00	6107.2
381.25	6306.9
381.50	5878.5
381.75	5965.8
382.00	5958.5
382.25	6004.3
382.50	6053.2
382.75	6318.3
383.00	6419.2
383.25	6633.4
383.50	6325.6
383.75	6702.1
384.00	6894.4
384.25	6746.8
384.50	7040.0
384.75	6896.5
385.00	6744.7
385.25	7082.7
385.50	7066.0
385.75	7387.3
386.00	7087.9
386.25	7257.4
386.50	6954.7
386.75	7301.0
387.00	7171.0
387.25	7573.5
387.50	7710.7
387.75	7497.6
388.00	7360.3
388.25	7974.9
388.50	7540.2
388.75	7653.6
389.00	7921.8
389.25	7999.8
389.50	7996.7
389.75	7973.8
390.00	8130.9
390.25	8532.3
390.50	8112.1
390.75	8226.5
391.00	8327.4
391.25	8429.3
391.50	8328.4
391.75	8514.6
392.00	8594.6
392.25	8459.5
392.50	8641.4
392.75	9074.0
393.00	8812.0
393.25	9068.8
393.50	8796.4
393.75	9084.4
394.00	9259.1
394.25	9318.4
394.50	9578.4
394.75	9457.8
395.00	9251.9
395.25	9385.0
395.50	9817.6
395.75	9857.1
396.00	10035
396.25	10160
396.50	10034
396.75	10322
397.00	10380
397.25	10795
397.50	10599
397.75	10545
398.00	10664
398.25	10559
398.50	10797
398.75	11085
399.00	11157
399.25	10862
399.50	10918
399.75	11017
400.00	11011
400.25	11400
400.50	11203
400.75	11749
401.00	11191
401.25	11516
401.50	11894
401.75	11768
402.00	11753
402.25	11569
402.50	11815
402.75	11972
403.00	11820
403.25	12079
403.50	12445
403.75	12491
404.00	12389
404.25	12339
404.50	12603
404.75	12447
405.00	12781
405.25	12594
405.50	12932
405.75	12931
406.00	13097
406.25	12879
406.50	13417
406.75	13296
407.00	13334
407.25	13361
407.50	13508
407.75	13240
408.00	13612
408.25	13451
408.50	13783
408.75	14027
409.00	13837
409.25	13691
409.50	13639
409.75	14340
410.00	14338
410.25	14058
410.50	14098
410.75	14548
411.00	14389
411.25	14505
411.50	14417
411.75	14526
412.00	14547
412.25	14712
412.50	14605
412.75	14828
413.00	15084
413.25	14854
413.50	14910
413.75	15270
414.00	15312
414.25	15437
414.50	15529
414.75	15444
415.00	15030
415.25	15142
415.50	15471
415.75	15600
416.00	15603
416.25	15772
416.50	15661
416.75	15484
417.00	15970
417.25	15892
417.50	15759
417.75	15848
418.00	15850
418.25	16328
418.50	16174
418.75	16401
419.00	16392
419.25	16291
419.50	16558
419.75	16309
420.00	16267
420.25	16493
420.50	16574
420.75	16365
421.00	16477
421.25	16528
421.50	16493
421.75	16754
422.00	16941
422.25	16678
422.50	16800
422.75	16980
423.00	16724
423.25	16849
423.50	16983
423.75	17059
424.00	16892
424.25	16730
424.50	16853
424.75	16790
425.00	16844
425.25	16840
425.50	16827
425.75	16816
426.00	17004
426.25	16946
426.50	16720
426.75	16679
427.00	16714
427.25	16914
427.50	16551
427.75	16461
428.00	16580
428.25	16482
428.50	16497
428.75	16635
429.00	16303
429.25	16317
429.50	16162
429.75	16371
430.00	16144
430.25	16262
430.50	15928
430.75	15881
431.00	15741
431.25	15573
431.50	15862
431.75	15805
432.00	15688
432.25	15209
432.50	15542
432.75	15316
433.00	15147
433.25	15208
433.50	15043
433.75	14831
434.00	15164
434.25	14496
434.50	14477
434.75	14504
435.00	14240
435.25	14228
435.50	13930
435.75	14037
436.00	13841
436.25	13535
436.50	13391
436.75	13031
437.00	13271
437.25	12799
437.50	12940
437.75	12616
438.00	12645
438.25	12518
438.50	12591
438.75	12399
439.00	12249
439.25	12126
439.50	12086
439.75	11766
440.00	11785
440.25	11305
440.50	11341
440.75	11037
441.00	10871
441.25	10916
441.50	10860
441.75	10526
442.00	10189
442.25	10375
442.50	10196
442.75	10115
443.00	9623.1
443.25	9773.9
443.50	9825.9
443.75	9424.5
444.00	9478.5
444.25	9364.2
444.50	8951.3
444.75	9116.7
445.00	8876.5
445.25	8835.9
445.50	8508.3
445.75	8709.0
446.00	8302.4
446.25	8264.0
446.50	8258.8
446.75	8138.1
447.00	8014.4
447.25	7832.4
447.50	7581.8
447.75	7461.2
448.00	7476.8
448.25	7356.1
448.50	7136.7
448.75	7083.7
449.00	6748.9
449.25	6770.7
449.50	6594.9
449.75	6364.1
450.00	6514.9
450.25	6388.0
450.50	6269.5
450.75	6023.0
451.00	5968.9
451.25	5882.6
451.50	5859.7
451.75	5781.8
452.00	5743.3
452.25	5582.1
452.50	5606.0
452.75	5389.7
453.00	5277.4
453.25	5112.1
453.50	5036.2
453.75	4960.3
454.00	4925.9
454.25	4884.3
454.50	4962.3
454.75	4866.7
455.00	4826.1
455.25	4806.3
455.50	4653.5
455.75	4573.4
456.00	4419.5
456.25	4259.4
456.50	4209.5
456.75	4187.6
457.00	4077.4
457.25	4136.7
457.50	4029.6
457.75	3788.3
458.00	3851.7
458.25	3834.1
458.50	3792.5
458.75	3437.9
459.00	3585.5
459.25	3555.4
459.50	3412.9
459.75	3529.4
460.00	3373.4
460.25	3275.6
460.50	3343.2
460.75	3212.2
461.00	3436.8
461.25	2935.6
461.50	3204.9
461.75	3159.2
462.00	3005.3
462.25	3119.7
462.50	3064.5
462.75	3004.2
463.00	3013.6
463.25	2921.0
463.50	2974.1
463.75	2704.7
464.00	2947.0
464.25	2790.0
464.50	2833.7
464.75	2629.9
465.00	2602.8
465.25	2713.1
465.50	2559.2
465.75	2650.7
466.00	2730.7
466.25	2656.9
466.50	2608.0
466.75	2539.4
467.00	2443.7
467.25	2544.6
467.50	2470.8
467.75	2445.8
468.00	2587.2
468.25	2444.8
468.50	2664.2
468.75	2558.1
469.00	2554.0
469.25	2416.7
469.50	2394.9
469.75	2461.4
470.00	2534.2
470.25	2324.1
470.50	2573.7
470.75	2342.9
471.00	2440.6
471.25	2344.9
471.50	2328.3
471.75	2237.8
472.00	2283.6
472.25	2524.8
472.50	2318.9
472.75	2348.1
473.00	2183.8
473.25	2244.1
473.50	2226.4
473.75	1977.9
474.00	2227.4
474.25	2439.6
474.50	2224.3
474.75	2440.6
475.00	2326.2
475.25	2169.2
475.50	2332.5
475.75	2153.6
476.00	2257.6
476.25	2278.4
476.50	2540.4
476.75	2320.0
477.00	2673.5
477.25	2498.8
477.50	2278.4
477.75	2301.3
478.00	2409.4
478.25	2296.1
478.50	2255.5
478.75	2476.0
479.00	2595.6
479.25	2480.1
479.50	2462.4
479.75	2299.2
480.00	2473.9
480.25	2326.2
480.50	2490.5
480.75	2611.2
481.00	2560.2
481.25	2594.5
481.50	2792.1
481.75	2493.6
482.00	2580.0
482.25	2505.1
482.50	2522.8
482.75	2464.5
483.00	2540.4
483.25	2506.1
483.50	2622.6
483.75	2701.6
484.00	2723.5
484.25	2641.3
484.50	2757.8
484.75	2562.3
485.00	2711.0
485.25	2641.3
485.50	2611.2
485.75	2571.6
486.00	2580.0
486.25	2541.5
486.50	2706.8
486.75	2847.2
487.00	2753.6
487.25	2864.9
487.50	2764.0
487.75	2686.0
488.00	2727.6
488.25	2724.5
488.50	2730.7
488.75	2724.5
489.00	2800.4
489.25	2922.1
489.50	2888.8
489.75	2633.0
490.00	2766.1
490.25	2726.6
490.50	2812.9
490.75	3015.7
491.00	3001.1
491.25	2991.7
491.50	2931.4
491.75	2855.5
492.00	2961.6
492.25	2804.6
492.50	3021.9
492.75	3077.0
493.00	3004.2
493.25	3178.9
493.50	3323.5
493.75	3281.9
494.00	3088.5
494.25	3108.2
494.50	3195.6
494.75	3204.9
495.00	3185.2
495.25	3247.6
495.50	3370.3
495.75	3129.0
496.00	3463.9
496.25	3197.6
496.50	3137.3
496.75	3281.9
497.00	3296.4
497.25	3486.7
497.50	3477.4
497.75	3382.7
498.00	3581.4
498.25	3342.2
498.50	3519.0
498.75	3503.4
499.00	3741.5
499.25	3595.9
499.50	3500.3
499.75	3641.7
500.00	3621.9
500.25	3873.6
500.50	3707.2
500.75	3810.1
501.00	3809.1
501.25	3853.8
501.50	3781.0
501.75	3572.0
502.00	3929.7
502.25	3841.3
502.50	3936.0
502.75	4005.6
503.00	3930.8
503.25	4197.0
503.50	4050.4
503.75	3944.3
504.00	4075.3
504.25	4246.9
504.50	3955.7
504.75	4114.8
505.00	4008.8
505.25	4086.7
505.50	4107.5
505.75	3994.2
506.00	4171.0
506.25	4251.0
506.50	4549.5
506.75	4489.2
507.00	4445.5
507.25	4356.1
507.50	4606.7
507.75	4429.9
508.00	4594.2
508.25	4726.3
508.50	4444.5
508.75	4788.7
509.00	4785.5
509.25	4675.3
509.50	4721.1
509.75	4884.3
510.00	4736.7
510.25	4644.1
510.50	4761.6
510.75	5176.5
511.00	5047.6
511.25	5132.9
511.50	5132.9
511.75	5333.6
512.00	5199.4
512.25	5237.9
512.50	5248.3
512.75	5261.8
513.00	5250.4
513.25	5216.1
513.50	5559.2
513.75	5501.0
514.00	5329.4
514.25	5315.9
514.50	5333.6
514.75	5631.0
515.00	5773.4
515.25	5629.9
515.50	5590.4
515.75	5844.2
516.00	5911.7
516.25	5665.3
516.50	5826.5
516.75	5791.1
517.00	5933.6
517.25	6253.9
517.50	6315.2
517.75	6061.5
518.00	6336.0
518.25	6277.8
518.50	6331.9
518.75	6172.8
519.00	6447.3
519.25	6500.3
519.50	6451.4
519.75	6520.1
520.00	6600.1
520.25	6607.4
520.50	6630.3
520.75	6818.5
521.00	6763.4
521.25	7057.7
521.50	7028.6
521.75	6912.1
522.00	7061.9
522.25	7043.1
522.50	7081.6
522.75	7217.8
523.00	7207.4
523.25	7202.2
523.50	7291.7
523.75	7358.2
524.00	7543.3
524.25	7445.6
524.50	7409.2
524.75	7471.6
525.00	7503.8
525.25	7787.7
525.50	7696.2
525.75	7867.8
526.00	7753.4
526.25	7875.0
526.50	7880.2
526.75	8127.7
527.00	7975.9
527.25	8292.0
527.50	8111.1
527.75	8326.4
528.00	8327.4
528.25	8512.5
528.50	8631.0
528.75	8586.3
529.00	8395.0
529.25	8668.5
529.50	8671.6
529.75	8653.9
530.00	8933.6
530.25	9009.6
530.50	9140.6
530.75	9163.5
531.00	9263.3
531.25	9103.2
531.50	9325.7
531.75	9320.5
532.00	9493.1
532.25	9620.0
532.50	9635.6
532.75	9566.9
533.00	9763.5
533.25	9804.0
533.50	10126
533.75	10036
534.00	10197
534.25	10165
534.50	10075
534.75	10208
535.00	10407
535.25	10314
535.50	10474
535.75	10622
536.00	10714
536.25	10654
536.50	10737
536.75	10929
537.00	10857
537.25	11065
537.50	11080
537.75	11309
538.00	11395
538.25	11458
538.50	11499
538.75	11410
539.00	11567
539.25	11958
539.50	11898
539.75	12046
540.00	12275
540.25	12127
540.50	12468
540.75	12503
541.00	12611
541.25	12930
541.50	12599
541.75	12903
542.00	13074
542.25	13072
542.50	13154
542.75	13295
543.00	13314
543.25	13706
543.50	13526
543.75	13724
544.00	13758
544.25	14019
544.50	14044
544.75	14231
545.00	14214
545.25	14563
545.50	14733
545.75	14681
546.00	14616
546.25	15100
546.50	15275
546.75	15104
547.00	15511
547.25	15576
547.50	15555
547.75	15758
548.00	16014
548.25	16262
548.50	16024
548.75	16364
549.00	16408
549.25	16635
549.50	16616
549.75	16745
550.00	16977
550.25	17121
550.50	17312
550.75	17225
551.00	17789
551.25	17616
551.50	17871
551.75	18118
552.00	18084
552.25	18385
552.50	18502
552.75	18509
553.00	18639
553.25	19041
553.50	18991
553.75	19129
554.00	19231
554.25	19432
554.50	19845
554.75	20109
555.00	20359
555.25	20378
555.50	20556
555.75	20770
556.00	20693
556.25	21019
556.50	21215
556.75	21416
557.00	21666
557.25	21728
557.50	22101
557.75	22054
558.00	22321
558.25	22329
558.50	22666
558.75	22718
559.00	22816
559.25	22928
559.50	23081
559.75	23192
560.00	23482
560.25	23615
560.50	23774
560.75	23988
561.00	24240
561.25	24350
561.50	24419
561.75	24722
562.00	24719
562.25	25062
562.50	25117
562.75	25412
563.00	25462
563.25	25559
563.50	25932
563.75	25846
564.00	26191
564.25	26363
564.50	26356
564.75	26542
565.00	26752
565.25	27023
565.50	27053
565.75	27321
566.00	27606
566.25	27848
566.50	28025
566.75	28170
567.00	28187
567.25	28367
567.50	28434
567.75	28725
568.00	28586
568.25	28935
568.50	29100
568.75	29143
569.00	29506
569.25	29599
569.50	29684
569.75	29947
570.00	30169
570.25	30251
570.50	30723
570.75	30433
571.00	30791
571.25	31092
571.50	31096
571.75	31350
572.00	31569
572.25	31756
572.50	31969
572.75	32042
573.00	32344
573.25	32569
573.50	32514
573.75	32644
574.00	32840
574.25	32770
574.50	33153
574.75	33216
575.00	33249
575.25	33518
575.50	33504
575.75	34001
576.00	33917
576.25	34021
576.50	34543
576.75	34426
577.00	34658
577.25	34874
577.50	34945
577.75	35156
578.00	35369
578.25	35446
578.50	35630
578.75	35841
579.00	36150
579.25	36382
579.50	36372
579.75	36677
580.00	36755
580.25	36996
580.50	37135
580.75	37478
581.00	37362
581.25	37543
581.50	37807
581.75	38130
582.00	38319
582.25	38296
582.50	38660
582.75	39041
583.00	39066
583.25	39240
583.50	39470
583.75	39803
584.00	39796
584.25	40147
584.50	40288
584.75	40633
585.00	40718
585.25	40844
585.50	41216
585.75	41204
586.00	41856
586.25	42062
586.50	42140
586.75	42197
587.00	42559
587.25	42595
587.50	43070
587.75	43173
588.00	43478
588.25	43702
588.50	43935
588.75	44433
589.00	44574
589.25	45194
589.50	45228
589.75	45194
590.00	45634
590.25	45728
590.50	46159
590.75	46306
591.00	46816
591.25	47279
591.50	47161
591.75	47746
592.00	47957
592.25	48469
592.50	48382
592.75	48707
593.00	49132
593.25	49355
593.50	49703
593.75	50009
594.00	50314
594.25	50694
594.50	51259
594.75	51549
595.00	52337
595.25	52631
595.50	52814
595.75	53169
596.00	53556
596.25	53745
596.50	54643
596.75	54362
597.00	54949
597.25	55109
597.50	55539
597.75	56106
598.00	56294
598.25	56419
598.50	56968
598.75	57270
599.00	57827
599.25	58304
599.50	58614
599.75	59080
600.00	59349
600.25	59569
600.50	59835
600.75	60358
601.00	60592
601.25	60973
601.50	61312
601.75	61788
602.00	62177
602.25	62676
602.50	62896
602.75	63113
603.00	63528
603.25	63691
603.50	64262
603.75	64737
604.00	65183
604.25	65540
604.50	65829
604.75	66360
605.00	66475
605.25	66832
605.50	67044
605.75	67359
606.00	67750
606.25	68147
606.50	68593
606.75	68857
607.00	69220
607.25	69276
607.50	69921
607.75	70083
608.00	70205
608.25	71423
608.50	71045
608.75	71357
609.00	71663
609.25	71985
609.50	72280
609.75	72715
610.00	72971
610.25	73147
610.50	73351
610.75	73744
611.00	74016
611.25	73921
611.50	74268
611.75	74704
612.00	74877
612.25	74821
612.50	75022
612.75	75484
613.00	75289
613.25	75817
613.50	75814
613.75	75992
614.00	76109
614.25	76277
614.50	76516
614.75	76030
615.00	76618
615.25	76755
615.50	76910
615.75	76980
616.00	76958
616.25	76630
616.50	77200
616.75	76786
617.00	76626
617.25	76945
617.50	76931
617.75	76773
618.00	76707
618.25	76826
618.50	76895
618.75	77081
619.00	76806
619.25	76975
619.50	76437
619.75	76269
620.00	76548
620.25	76178
620.50	75769
620.75	75794
621.00	75521
621.25	75160
621.50	74947
621.75	74773
622.00	74680
622.25	74592
622.50	74342
622.75	74000
623.00	73937
623.25	73409
623.50	73237
623.75	73395
624.00	72445
624.25	72125
624.50	71836
624.75	71259
625.00	71488
625.25	70929
625.50	70387
625.75	70242
626.00	69707
626.25	69150
626.50	68873
626.75	68404
627.00	68232
627.25	67706
627.50	67003
627.75	66756
628.00	66005
628.25	65567
628.50	65191
628.75	65085
629.00	64535
629.25	63686
629.50	63378
629.75	62837
630.00	62426
630.25	61799
630.50	61433
630.75	60760
631.00	60147
631.25	60064
631.50	59355
631.75	58786
632.00	58393
632.25	57557
632.50	57324
632.75	56677
633.00	55806
633.25	55515
633.50	55004
633.75	54438
634.00	53937
634.25	53325
634.50	52925
634.75	52143
635.00	51105
635.25	50442
635.50	50044
635.75	49363
636.00	48802
636.25	48261
636.50	47649
636.75	46886
637.00	46533
637.25	45757
637.50	45435
637.75	44646
638.00	44515
638.25	43965
638.50	43332
638.75	42784
639.00	42266
639.25	41655
639.50	41314
639.75	40741
640.00	40367
640.25	39913
640.50	39237
640.75	38847
641.00	38285
641.25	37944
641.50	37143
641.75	37039
642.00	36517
642.25	35775
642.50	35256
642.75	35007
643.00	34538
643.25	34012
643.50	33550
643.75	32996
644.00	32583
644.25	32397
644.50	31626
644.75	31473
645.00	30891
645.25	30476
645.50	30215
645.75	29565
646.00	28946
646.25	28762
646.50	28319
646.75	27848
647.00	27875
647.25	26863
647.50	26822
647.75	25966
648.00	25506
648.25	25495
648.50	25322
648.75	24923
649.00	24201
649.25	23842
649.50	23668
649.75	23093
650.00	23045
650.25	22197
650.50	22313
650.75	21650
651.00	21051
651.25	21131
651.50	20693
651.75	20179
652.00	20176
652.25	19517
652.50	19201
652.75	19019
653.00	18626
653.25	18465
653.50	18206
653.75	17823
654.00	17731
654.25	17667
654.50	17062
654.75	17281
655.00	16643
655.25	16511
655.50	16135
655.75	15899
656.00	15830
656.25	15102
656.50	15034
656.75	14731
657.00	14510
657.25	14371
657.50	14011
657.75	13683
658.00	13559
658.25	13263
658.50	13067
658.75	12922
659.00	12657
659.25	12421
659.50	12103
659.75	12042
660.00	11645
660.25	11445
660.50	11097
660.75	10820
661.00	10830
661.25	10517
661.50	10506
661.75	10284
662.00	10283
662.25	9835.2
662.50	9607.5
662.75	9578.4
663.00	9536.8
663.25	8947.2
663.50	8942.0
663.75	8918.1
664.00	8880.6
664.25	8555.1
664.50	8044.5
664.75	8197.4
665.00	8113.2
665.25	8197.4
665.50	7725.3
665.75	7565.2
666.00	7543.3
666.25	7440.4
666.50	7641.1
666.75	7102.4
667.00	7274.0
667.25	7221.0
667.50	6993.2
667.75	6551.3
668.00	6622.0
668.25	6630.3
668.50	6255.9
668.75	6335.0
669.00	6304.8
669.25	6025.1
669.50	5925.3
669.75	5933.6
670.00	5640.3
670.25	5504.1
670.50	5533.2
670.75	5226.5
671.00	5022.6
671.25	4965.4
671.50	5174.5
671.75	5295.1
672.00	5124.6
672.25	5044.5
672.50	4680.5
672.75	4486.1
673.00	4846.9
673.25	4601.5
673.50	4009.8
673.75	4637.9
674.00	4143.9
674.25	4237.5
674.50	4111.7
674.75	4225.1
675.00	3900.6
675.25	4012.9
675.50	3921.4
675.75	3694.7
676.00	3723.8
676.25	3580.3
676.50	3330.8
676.75	3324.5
677.00	3334.9
677.25	3317.2
677.50	3050.0
677.75	3100.9
678.00	3228.8
678.25	3287.1
678.50	3320.4
678.75	3010.5
679.00	3018.8
679.25	2723.5
679.50	2591.4
679.75	2671.5
680.00	2705.8
680.25	2671.5
680.50	2849.3
680.75	2447.9
681.00	2504.0
681.25	2438.5
681.50	2429.2
681.75	2707.9
682.00	2222.2
682.25	2440.6
682.50	2308.5
682.75	2390.7
683.00	2454.1
683.25	2168.2
683.50	2251.4
683.75	2148.4
684.00	2091.2
684.25	2127.6
684.50	2329.3
684.75	2109.9
685.00	1867.6
685.25	2097.4
685.50	1898.8
685.75	2072.5
686.00	1907.1
686.25	2066.3
686.50	1752.2
686.75	2193.1
687.00	2007.0
687.25	1784.4
687.50	1876.0
687.75	1941.5
688.00	1931.1
688.25	1858.3
688.50	1665.9
688.75	1723.1
689.00	1336.3
689.25	1986.2
689.50	1617.0
689.75	1546.3
690.00	1716.8
690.25	1646.1
690.50	1367.4
690.75	1551.5
691.00	1587.9
691.25	1400.7
691.50	1533.8
691.75	1341.5
692.00	1621.2
692.25	1279.1
692.50	1363.3
692.75	1516.2
693.00	1268.7
693.25	1443.4
693.50	1289.5
693.75	1235.4
694.00	1377.8
694.25	1402.8
694.50	1089.8
694.75	1039.9
695.00	1288.4
695.25	1362.2
695.50	1468.3
695.75	1391.4
696.00	1072.1
696.25	1376.8
696.50	1016.0
696.75	1266.6
697.00	1379.9
697.25	552.18
697.50	971.25
697.75	1102.3
698.00	1150.1
698.25	914.06
698.50	1042.0
698.75	1112.7
699.00	874.54
699.25	1028.4
699.50	935.90
699.75	727.92
700.00	1037.8
700.25	1225.0
700.50	1184.4
700.75	1085.6
701.00	1008.7
701.25	1087.7
701.50	1033.6
701.75	936.94
702.00	853.75
702.25	751.84
702.50	1178.2
702.75	652.01
703.00	1156.4
703.25	633.29
703.50	861.02
703.75	710.24
704.00	1062.8
704.25	1025.3
704.50	771.59
704.75	715.44
705.00	534.50
705.25	997.25
705.50	908.86
705.75	1126.2
706.00	702.96
706.25	655.13
706.50	908.86
706.75	453.39
707.00	1106.4
707.25	805.91
707.50	1066.9
707.75	821.51
708.00	611.45
708.25	753.92
708.50	433.63
708.75	997.25
709.00	743.52
709.25	695.68
709.50	619.77
709.75	369.16
710.00	933.82
710.25	919.26
710.50	433.63
710.75	925.50
711.00	1070.0
711.25	595.85
711.50	824.63
711.75	560.50
712.00	713.36
712.25	678.00
712.50	430.51
712.75	710.24
713.00	633.29
713.25	523.06
713.50	784.07
713.75	1034.7
714.00	774.71
714.25	186.14
714.50	489.79
714.75	175.74
715.00	867.26
715.25	952.53
715.50	436.75
715.75	854.79
716.00	548.02
716.25	620.81
716.50	725.84
716.75	708.16
717.00	437.79
717.25	437.79
717.50	434.67
717.75	859.98
718.00	853.75
718.25	514.74
718.50	689.44
718.75	811.11
719.00	1070.0
719.25	408.67
719.50	568.82
719.75	770.55
720.00	7.2792
720.25	300.53
720.50	445.07
720.75	775.75
721.00	567.78
721.25	333.80
721.50	556.34
721.75	687.36
722.00	715.44
722.25	337.96
722.50	324.44
722.75	442.99
723.00	449.23
723.25	180.94
723.50	714.40
723.75	578.18
724.00	442.99
724.25	1237.5
724.50	784.07
724.75	395.16
725.00	581.30
725.25	323.40
725.50	451.31
725.75	700.88
726.00	322.36
726.25	669.69
726.50	634.33
726.75	679.04
727.00	595.85
727.25	759.12
727.50	403.48
727.75	687.36
728.00	252.69
728.25	507.46
728.50	285.97
728.75	409.71
729.00	528.26
729.25	852.71
729.50	434.67
729.75	488.75
730.00	948.37
730.25	442.99
730.50	844.39
730.75	188.22
731.00	452.35
731.25	618.73
731.50	279.73
731.75	650.97
732.00	498.10
732.25	574.02
732.50	619.77
732.75	-191.34
733.00	774.71
733.25	420.11
733.50	377.48
733.75	429.47
734.00	339.00
734.25	134.15
734.50	446.11
734.75	412.83
735.00	596.89
735.25	358.76
735.50	449.23
735.75	470.03
736.00	544.90
736.25	339.00
736.50	672.81
736.75	386.84
737.00	1159.5
737.25	620.81
737.50	494.99
737.75	271.41
738.00	585.46
738.25	700.88
738.50	827.75
738.75	412.83
739.00	321.32
739.25	475.23
739.50	489.79
739.75	317.16
740.00	593.77
740.25	796.55
740.50	807.99
740.75	313.01
741.00	-57.194
741.25	541.78
741.50	373.32
741.75	86.310
742.00	-39.516
742.25	453.39
742.50	670.73
742.75	734.16
743.00	266.21
743.25	190.30
743.50	354.60
743.75	245.41
744.00	224.62
744.25	404.52
744.50	259.97
744.75	331.72
745.00	133.11
745.25	219.42
745.50	269.33
745.75	429.47
746.00	607.29
746.25	643.69
746.50	212.14
746.75	23.917
747.00	253.73
747.25	527.22
747.50	916.14
747.75	17.678
748.00	-106.07
748.25	731.04
748.50	618.73
748.75	530.34
749.00	603.13
749.25	512.66
749.50	35.356
749.75	472.11
750.00	770.55
750.25	765.36
750.50	728.96
750.75	594.81
751.00	381.64
751.25	225.65
751.50	90.470
751.75	-3.1197
752.00	383.72
752.25	181.98
752.50	728.96
752.75	419.07
753.00	377.48
753.25	1109.6
753.50	406.59
753.75	545.94
754.00	727.92
754.25	43.675
754.50	550.10
754.75	231.89
755.00	303.65
755.25	541.78
755.50	431.55
755.75	714.40
756.00	689.44
756.25	337.96
756.50	432.59
756.75	261.01
757.00	199.66
757.25	-179.90
757.50	292.21
757.75	674.89
758.00	356.68
758.25	561.54
758.50	444.03
758.75	44.715
759.00	538.66
759.25	386.84
759.50	562.58
759.75	342.12
760.00	704.00
760.25	643.69
760.50	783.03
760.75	-33.276
761.00	166.38
761.25	355.64
761.50	176.78
761.75	586.49
762.00	376.44
762.25	199.66
762.50	142.46
762.75	985.81
763.00	537.62
763.25	459.63
763.50	133.11
763.75	450.27
764.00	120.63
764.25	188.22
764.50	183.02
764.75	453.39
765.00	487.71
765.25	902.62
765.50	692.56
765.75	600.01
766.00	376.44
766.25	388.92
766.50	-71.752
766.75	-105.03
767.00	327.56
767.25	406.59
767.50	145.58
767.75	268.29
768.00	640.57
768.25	-111.27
768.50	-2.7892e-05
768.75	549.06
769.00	894.30
769.25	340.04
769.50	785.11
769.75	662.41
770.00	-21.838
770.25	959.81
770.50	113.35
770.75	1090.8
771.00	350.44
771.25	110.23
771.50	353.56
771.75	53.034
772.00	438.83
772.25	-169.50
772.50	388.92
772.75	678.00
773.00	370.20
773.25	-32.236
773.50	467.95
773.75	-31.197
774.00	493.95
774.25	129.99
774.50	441.95
774.75	-305.73
775.00	605.21
775.25	152.86
775.50	-31.197
775.75	277.65
776.00	370.20
776.25	317.16
776.50	903.66
776.75	472.11
777.00	354.60
777.25	-314.05
777.50	-82.151
777.75	-110.23
778.00	363.96
778.25	-193.42
778.50	329.64
778.75	551.14
779.00	-88.390
779.25	-157.02
779.50	-166.38
779.75	450.27
780.00	612.49
780.25	244.37
780.50	93.590
780.75	753.92
781.00	1124.1
781.25	388.92
781.50	1158.4
781.75	-262.05
782.00	598.97
782.25	138.30
782.50	74.872
782.75	484.59
783.00	1154.3
783.25	290.13
783.50	170.54
783.75	503.30
784.00	398.28
784.25	111.27
784.50	384.76
784.75	189.26
785.00	533.46
785.25	425.31
785.50	245.41
785.75	-243.33
786.00	341.08
786.25	75.912
786.50	955.65
786.75	432.59
787.00	569.86
787.25	627.05
787.50	483.55
787.75	590.65
788.00	453.39
788.25	-12.479
788.50	185.10
788.75	435.71
789.00	214.22
789.25	674.89
789.50	333.80
789.75	376.44
790.00	235.01
790.25	725.84
790.50	65.513
790.75	508.50
791.00	-113.35
791.25	301.57
791.50	-354.60
791.75	121.67
792.00	329.64
792.25	407.63
792.50	524.10
792.75	93.590
793.00	416.99
793.25	658.25
793.50	897.42
793.75	415.95
794.00	472.11
794.25	301.57
794.50	611.45
794.75	89.430
795.00	576.10
795.25	237.09
795.50	749.76
795.75	68.632
796.00	680.08
796.25	-83.191
796.50	377.48
796.75	355.64
797.00	150.78
797.25	141.42
797.50	269.33
797.75	79.031
798.00	631.21
798.25	824.63
798.50	741.44
798.75	374.36
799.00	381.64
799.25	-254.77
799.50	29.117
799.75	10.399
800.00	85.271
