Wavelength (nm)	I12 abs e
200.0	5621.7
201.0	5737.0
202.0	5436.9
203.0	4929.5
204.0	4650.5
205.0	4410.8
206.0	4184.1
207.0	3984.1
208.0	3870.4
209.0	3744.3
210.0	3635.5
211.0	3569.2
212.0	3471.8
213.0	3413.2
214.0	3375.7
215.0	3343.5
216.0	3324.2
217.0	3320.1
218.0	3311.6
219.0	3313.7
220.0	3334.0
221.0	3354.5
222.0	3394.8
223.0	3453.2
224.0	3516.7
225.0	3584.5
226.0	3651.9
227.0	3713.6
228.0	3763.6
229.0	3809.4
230.0	3852.3
231.0	3914.4
232.0	4001.1
233.0	4112.3
234.0	4269.9
235.0	4467.1
236.0	4693.1
237.0	4946.0
238.0	5232.4
239.0	5526.0
240.0	5831.8
241.0	6137.9
242.0	6442.5
243.0	6747.1
244.0	7018.7
245.0	7205.6
246.0	7243.3
247.0	7106.8
248.0	6808.2
249.0	6413.0
250.0	5985.2
251.0	5569.3
252.0	5203.9
253.0	4894.1
254.0	4639.4
255.0	4436.0
256.0	4267.8
257.0	4140.3
258.0	4048.5
259.0	3983.5
260.0	3966.5
261.0	3999.0
262.0	4088.9
263.0	4227.3
264.0	4399.8
265.0	4622.4
266.0	4863.6
267.0	5124.3
268.0	5387.5
269.0	5679.3
270.0	5964.5
271.0	6272.8
272.0	6614.5
273.0	6984.6
274.0	7409.5
275.0	7882.1
276.0	8399.1
277.0	8965.4
278.0	9553.2
279.0	10172
280.0	10814
281.0	11453
282.0	12079
283.0	12708
284.0	13366
285.0	14045
286.0	14770
287.0	15506
288.0	16286
289.0	16997
290.0	17615
291.0	18023
292.0	18168
293.0	18036
294.0	17622
295.0	16940
296.0	16017
297.0	14944
298.0	13794
299.0	12611
300.0	11456
301.0	10362
302.0	9342.6
303.0	8373.4
304.0	7493.8
305.0	6714.9
306.0	6048.2
307.0	5466.1
308.0	5018.0
309.0	4653.2
310.0	4361.3
311.0	4150.2
312.0	3995.6
313.0	3870.6
314.0	3752.4
315.0	3664.9
316.0	3596.5
317.0	3529.4
318.0	3482.4
319.0	3436.7
320.0	3418.3
321.0	3401.3
322.0	3419.3
323.0	3416.1
324.0	3424.9
325.0	3386.7
326.0	3342.3
327.0	3279.7
328.0	3179.7
329.0	3038.4
330.0	2856.8
331.0	2673.9
332.0	2481.0
333.0	2278.3
334.0	2075.8
335.0	1894.0
336.0	1722.5
337.0	1560.3
338.0	1421.8
339.0	1293.7
340.0	1190.2
341.0	1084.6
342.0	1001.3
343.0	924.08
344.0	855.72
345.0	805.37
346.0	753.23
347.0	694.41
348.0	658.64
349.0	615.00
350.0	584.23
351.0	556.85
352.0	521.21
353.0	498.11
354.0	476.39
355.0	450.54
356.0	446.66
357.0	422.36
358.0	413.97
359.0	409.32
360.0	404.92
361.0	403.65
362.0	376.63
363.0	387.60
364.0	389.46
365.0	379.91
366.0	385.10
367.0	386.61
368.0	378.69
369.0	399.96
370.0	409.01
371.0	392.41
372.0	405.87
373.0	384.42
374.0	376.13
375.0	381.77
376.0	395.35
377.0	400.20
378.0	397.15
379.0	401.92
380.0	413.20
381.0	428.39
382.0	443.45
383.0	453.64
384.0	477.94
385.0	486.93
386.0	517.16
387.0	527.92
388.0	512.36
389.0	527.49
390.0	504.37
391.0	513.31
392.0	498.06
393.0	473.54
394.0	452.46
395.0	411.32
396.0	390.06
397.0	360.10
398.0	316.29
399.0	292.16
400.0	253.19
401.0	230.06
402.0	213.35
403.0	194.98
404.0	179.79
405.0	164.27
406.0	153.26
407.0	135.53
408.0	130.61
409.0	118.77
410.0	132.18
411.0	130.84
412.0	115.55
413.0	114.64
414.0	121.97
415.0	116.09
416.0	112.45
417.0	126.11
418.0	135.98
419.0	133.63
420.0	123.94
421.0	134.35
422.0	150.20
423.0	156.50
424.0	162.52
425.0	171.92
426.0	164.79
427.0	161.75
428.0	187.19
429.0	190.16
430.0	199.30
431.0	205.97
432.0	201.40
433.0	226.92
434.0	235.08
435.0	246.22
436.0	254.96
437.0	269.18
438.0	279.18
439.0	290.79
440.0	309.27
441.0	310.20
442.0	328.59
443.0	333.67
444.0	352.49
445.0	366.09
446.0	390.33
447.0	401.90
448.0	411.14
449.0	427.13
450.0	455.06
451.0	474.22
452.0	486.64
453.0	504.49
454.0	516.37
455.0	531.42
456.0	549.74
457.0	553.01
458.0	565.10
459.0	596.40
460.0	610.04
461.0	616.82
462.0	626.09
463.0	651.14
464.0	655.79
465.0	677.09
466.0	674.53
467.0	691.84
468.0	722.24
469.0	746.42
470.0	759.04
471.0	807.04
472.0	813.32
473.0	822.08
474.0	843.70
475.0	845.87
476.0	864.75
477.0	873.60
478.0	890.00
479.0	910.73
480.0	919.24
481.0	947.98
482.0	970.40
483.0	972.04
484.0	982.00
485.0	996.25
486.0	1025.2
487.0	1009.5
488.0	1016.9
489.0	1052.2
490.0	1047.1
491.0	1036.4
492.0	1046.7
493.0	1034.6
494.0	1024.7
495.0	1027.3
496.0	992.58
497.0	993.61
498.0	992.56
499.0	984.93
500.0	962.92
501.0	954.25
502.0	944.99
503.0	920.38
504.0	911.43
505.0	891.20
506.0	888.10
507.0	906.12
508.0	889.09
509.0	891.22
510.0	889.20
511.0	874.51
512.0	877.03
513.0	893.50
514.0	882.17
515.0	898.10
516.0	913.19
517.0	901.80
518.0	903.52
519.0	928.48
520.0	953.98
521.0	956.73
522.0	972.86
523.0	984.93
524.0	1009.0
525.0	1045.2
526.0	1040.7
527.0	1056.5
528.0	1090.9
529.0	1132.3
530.0	1168.4
531.0	1203.9
532.0	1243.2
533.0	1273.4
534.0	1313.9
535.0	1358.5
536.0	1393.4
537.0	1456.2
538.0	1522.0
539.0	1544.4
540.0	1609.4
541.0	1700.9
542.0	1779.3
543.0	1835.7
544.0	1905.6
545.0	1977.2
546.0	2046.5
547.0	2130.9
548.0	2225.7
549.0	2305.3
550.0	2398.6
551.0	2479.5
552.0	2583.5
553.0	2693.5
554.0	2768.3
555.0	2882.1
556.0	2979.7
557.0	3076.1
558.0	3165.4
559.0	3284.9
560.0	3403.2
561.0	3532.1
562.0	3655.6
563.0	3780.7
564.0	3909.0
565.0	4032.0
566.0	4179.1
567.0	4318.8
568.0	4462.4
569.0	4626.3
570.0	4783.3
571.0	4941.3
572.0	5115.7
573.0	5304.8
574.0	5515.4
575.0	5711.9
576.0	5922.8
577.0	6179.3
578.0	6405.0
579.0	6642.5
580.0	6927.0
581.0	7213.2
582.0	7472.6
583.0	7717.9
584.0	8090.9
585.0	8420.4
586.0	8709.8
587.0	9094.5
588.0	9445.1
589.0	9787.2
590.0	10191
591.0	10578
592.0	11003
593.0	11397
594.0	11751
595.0	12155
596.0	12507
597.0	12875
598.0	13235
599.0	13560
600.0	13847
601.0	14122
602.0	14374
603.0	14626
604.0	14815
605.0	15011
606.0	15193
607.0	15350
608.0	15511
609.0	15649
610.0	15784
611.0	15903
612.0	16038
613.0	16153
614.0	16283
615.0	16416
616.0	16557
617.0	16728
618.0	16901
619.0	17113
620.0	17323
621.0	17557
622.0	17876
623.0	18169
624.0	18531
625.0	18930
626.0	19388
627.0	19864
628.0	20378
629.0	20976
630.0	21563
631.0	22182
632.0	22864
633.0	23529
634.0	24182
635.0	24905
636.0	25684
637.0	26406
638.0	27198
639.0	27991
640.0	28816
641.0	29577
642.0	30372
643.0	31347
644.0	32180
645.0	33038
646.0	33912
647.0	34884
648.0	35847
649.0	36783
650.0	37565
651.0	38498
652.0	39202
653.0	39812
654.0	40183
655.0	40530
656.0	40700
657.0	40292
658.0	39694
659.0	38863
660.0	37904
661.0	36699
662.0	35217
663.0	33626
664.0	31986
665.0	30099
666.0	28169
667.0	26232
668.0	24303
669.0	22444
670.0	20622
671.0	18878
672.0	17240
673.0	15776
674.0	14346
675.0	13064
676.0	11881
677.0	10800
678.0	9797.1
679.0	8895.3
680.0	8057.5
681.0	7297.0
682.0	6597.9
683.0	5954.6
684.0	5355.3
685.0	4802.9
686.0	4317.8
687.0	3863.4
688.0	3453.3
689.0	3084.2
690.0	2734.0
691.0	2425.4
692.0	2162.2
693.0	1904.3
694.0	1691.9
695.0	1487.6
696.0	1321.6
697.0	1163.1
698.0	1032.2
699.0	913.93
700.0	807.79
701.0	718.27
702.0	635.37
703.0	573.53
704.0	519.70
705.0	448.60
706.0	403.22
707.0	355.26
708.0	317.32
709.0	296.70
710.0	266.24
711.0	237.09
712.0	215.31
713.0	189.58
714.0	166.21
715.0	144.68
716.0	131.21
717.0	122.84
718.0	123.07
719.0	99.349
720.0	99.906
721.0	92.633
722.0	92.902
723.0	71.908
724.0	71.226
725.0	74.656
726.0	76.867
727.0	57.464
728.0	55.439
729.0	47.298
730.0	54.385
731.0	43.000
732.0	45.583
733.0	37.256
734.0	39.033
735.0	33.784
736.0	28.887
737.0	34.631
738.0	30.251
739.0	24.507
740.0	27.007
741.0	38.805
742.0	33.991
743.0	41.161
744.0	32.255
745.0	31.863
746.0	27.275
747.0	25.581
748.0	25.726
749.0	26.325
750.0	32.916
751.0	21.614
752.0	32.544
753.0	31.718
754.0	26.346
755.0	24.610
756.0	23.267
757.0	15.890
758.0	10.807
759.0	13.576
760.0	16.097
761.0	21.614
762.0	40.706
763.0	5.6204
764.0	25.023
765.0	25.519
766.0	21.386
767.0	13.369
768.0	22.048
769.0	9.8150
770.0	17.130
771.0	17.894
772.0	27.544
773.0	24.362
774.0	25.602
775.0	24.486
776.0	17.150
777.0	19.671
778.0	22.936
779.0	16.262
780.0	15.621
781.0	13.080
782.0	31.883
783.0	27.875
784.0	25.891
785.0	19.527
786.0	22.874
787.0	29.796
788.0	26.098
789.0	24.011
790.0	23.473
791.0	27.565
792.0	23.308
793.0	23.556
794.0	31.842
795.0	24.217
796.0	29.404
797.0	15.291
798.0	25.622
799.0	23.081
800.0	16.613
